File: XRD/OER Sample 3(2) (Ti TiO2 Sb2S3 Ni)_25112020_bg_subtracted.xy
'Id: "Commander Sample ID" Comment: "" Operator: "Lab Manager" Anode: "Cu" Scantype: "Coupled TwoTheta/Theta" TimePerStep: "38.4"
10.0001 -0.610176
10.2862 0.232555
10.5722 0.177305
10.8583 0.10824
11.1443 0.795176
11.4304 -0.213964
11.7164 0.830715
12.0025 -0.0227427
12.2886 0.220454
12.5746 2.0551
12.8607 1.9916
13.1467 1.90497
13.4328 2.36812
13.7188 3.40709
14.0049 1.48022
14.291 4.19167
14.577 3.49456
14.8631 2.35765
15.1491 2.86427
15.4352 3.16546
15.7212 5.70914
16.0073 1.06822
16.2934 0.805214
16.5794 0.440941
16.8655 0.313948
17.1515 -0.383057
17.4376 0.172843
17.7236 3.51811
18.0097 -0.347268
18.2958 0.217346
18.5818 -0.0514048
18.8679 0.519934
19.1539 0.52126
19.44 0.707783
19.726 0.168044
20.0121 0.646835
20.2981 0.349817
20.5842 0.054219
20.8703 0.230276
21.1563 0.904029
21.4424 0.0181866
21.7284 -0.00537574
22.0145 0.548067
22.3005 1.24173
22.5866 1.23517
22.8727 0.11172
23.1587 0.553678
23.4448 -0.137851
23.7308 0.0514764
24.0169 0.191625
24.3029 0.177937
24.589 0.415468
24.8751 1.46319
25.1611 3.63362
25.4472 0.520487
25.7332 0.292201
26.0193 -0.313398
26.3053 -0.0655647
26.5914 0.0961944
26.8775 0.312942
27.1635 -0.00782789
27.4496 -0.699033
27.7356 0.307021
28.0217 0.584832
28.3077 -0.384451
28.5938 1.74813
28.8799 0.00340515
29.1659 0.240753
29.452 0.278608
29.738 0.440016
30.0241 0.187663
30.3101 -0.191994
30.5962 0.0767045
30.8823 0.358213
31.1683 0.764158
31.4544 0.0483943
31.7404 -0.221756
32.0265 0.39865
32.3125 0.731187
32.5986 0.337462
32.8847 0.207059
33.1707 0.0535185
33.4568 0.826136
33.7428 0.419099
34.0289 -0.167325
34.3149 0.186655
34.601 -0.367917
34.8871 0.184704
35.1731 0.309164
35.4592 0.0979871
35.7452 0.384507
36.0313 0.517681
36.3173 0.237094
36.6034 -0.267388
36.8895 -0.24182
37.1755 0.151237
37.4616 -0.312176
37.7476 0.139261
38.0337 1.66131
38.3197 17.405
38.6058 6.38079
38.8919 0.359473
39.1779 0.6171
39.464 -0.0701592
39.75 0.77044
40.0361 2.29103
40.3221 10.2989
40.6082 0.679457
40.8942 -0.218087
41.1803 0.027882
41.4664 -0.287849
41.7524 0.248263
42.0385 0.683113
42.3245 0.626077
42.6106 -0.143044
42.8966 0.76804
43.1827 0.952862
43.4688 0.281214
43.7548 0.341637
44.0409 0.405875
44.3269 0.326662
44.613 -0.010063
44.899 0.123808
45.1851 0.326214
45.4712 -0.18595
45.7572 0.164165
46.0433 0.164345
46.3293 0.24887
46.6154 0.246708
46.9014 0.383059
47.1875 0.626482
47.4736 -0.403232
47.7596 -0.41119
48.0457 -0.338119
48.3317 0.260375
48.6178 -0.101768
48.9038 0.122647
49.1899 0.00738812
49.476 0.038684
49.762 0.0754107
50.0481 0.347718
50.3341 0.0743563
50.6202 0.409078
50.9062 0.211966
51.1923 -0.0428142
51.4784 0.0654675
51.7644 -0.113819
52.0505 -0.0579298
52.3365 -0.18274
52.6226 0.606812
52.9086 6.34719
53.1947 11.4655
53.4808 -0.0279343
53.7668 0.173399
54.0529 0.375098
54.3389 0.6913
54.625 0.0208241
54.911 0.00429426
55.1971 0.0909219
55.4832 0.0210286
55.7692 0.143237
56.0553 0.176016
56.3413 0.0423225
56.6274 -0.099848
56.9134 0.29882
57.1995 0.101434
57.4856 0.227503
57.7716 0.312443
58.0577 0.192665
58.3437 -0.0118136
58.6298 0.216927
58.9158 0.110031
59.2019 0.0581234
59.4879 -0.147142
59.774 0.647819
60.0601 0.104339
60.3461 0.29293
60.6322 0.0417848
60.9182 0.319613
61.2043 -0.0506966
61.4903 0.310855
61.7764 -0.0408695
62.0625 -0.103231
62.3485 0.0106563
62.6346 0.025824
62.9206 5.71942
63.2067 1.10343
63.4927 -0.0200788
63.7788 -0.0469313
64.0649 0.0549431
64.3509 0.274454
64.637 -0.0634268
64.923 -0.137986
65.2091 0.0507763
65.4951 0.0297236
65.7812 -0.14262
66.0673 0.0613591
66.3533 -0.257921
66.6394 0.206954
66.9254 0.023692
67.2115 0.0930543
67.4975 -0.184624
67.7836 -0.128199
68.0697 0.217589
68.3557 -0.432893
68.6418 0.197637
68.9278 0.647099
69.2139 -0.171465
69.4999 0.0843388
69.786 -0.106283
70.0721 0.435166
70.3581 3.81806
70.6442 118.558
70.9302 10.3582
71.2163 0.130011
71.5023 0.18892
71.7884 0.428935
72.0745 0.090524
72.3605 0.177204
72.6466 0.0324137
72.9326 0.0207365
73.2187 -0.0524945
73.5047 -0.178402
73.7908 0.115529
74.0769 -0.295705
74.3629 0.509321
74.649 0.167687
74.935 0.105764
75.2211 0.31048
75.5071 -0.115995
75.7932 0.0520834
76.0793 1.44702
76.3653 2.14175
76.6514 0.391456
76.9374 0.101021
77.2235 -0.0397385
77.5095 -0.155749
77.7956 0.0696866
78.0816 0.0636522
78.3677 0.12098
78.6538 0.331265
78.9398 0.0818648
79.2259 0.315031
79.5119 0.0823522
79.798 0.165078
80.084 -0.0357497
80.3701 -0.129506
80.6562 0.602891
80.9422 0.322568
81.2283 0.045149
81.5143 0.231148
81.8004 0.176059
82.0864 0.618665
82.3725 1.16834
82.6586 -0.0759479
82.9446 -0.0933766
83.2307 0.00675621
83.5167 -0.311812
83.8028 0.0218017
84.0888 0.0493243
84.3749 0.17082
84.661 0.13897
84.947 0.0310303
85.2331 -0.204223
85.5191 -0.144706
85.8052 0.0739651
86.0912 0.00232095
86.3773 0.132135
86.6634 0.00443696
86.9494 0.257452
87.2355 -0.0544578
87.5215 0.131329
87.8076 0.140668
88.0936 0.3121
88.3797 0.384648
88.6658 0.0652172
88.9518 0.0775268
89.2379 -0.0745721
89.5239 0.244984
89.81 0.155066
89.9939 -0.140239