File: XRD/OER Sample 4 (Ti TiO2 Sb2S3 MoO3 Ni)_25112020_bg_subtracted.xy
'Id: "Commander Sample ID" Comment: "" Operator: "Lab Manager" Anode: "Cu" Scantype: "Coupled TwoTheta/Theta" TimePerStep: "38.4"
10.0001 -0.620645
10.2862 -0.834137
10.5722 0.569094
10.8583 -0.742044
11.1443 0.6604
11.4304 0.630562
11.7164 1.0174
12.0025 1.16987
12.2886 3.14526
12.5746 3.03733
12.8607 3.91899
13.1467 4.48816
13.4328 5.63026
13.7188 5.5484
14.0049 6.53426
14.291 5.95763
14.577 6.13622
14.8631 6.57523
15.1491 5.55592
15.4352 4.84911
15.7212 8.96002
16.0073 4.32094
16.2934 2.91103
16.5794 2.77718
16.8655 1.23708
17.1515 1.80637
17.4376 1.17774
17.7236 3.4658
18.0097 0.701774
18.2958 0.802343
18.5818 -0.194618
18.8679 0.816482
19.1539 0.395298
19.44 -0.598795
19.726 -0.361663
20.0121 -0.0877208
20.2981 -0.0511595
20.5842 -0.275006
20.8703 1.01157
21.1563 0.00649111
21.4424 0.147252
21.7284 0.716752
22.0145 -0.251273
22.3005 0.994252
22.5866 -0.494589
22.8727 -0.110579
23.1587 0.585939
23.4448 -0.0663366
23.7308 0.186884
24.0169 -0.393221
24.3029 0.750819
24.589 0.403437
24.8751 2.10359
25.1611 4.11624
25.4472 0.113283
25.7332 0.14679
26.0193 0.649055
26.3053 0.0054954
26.5914 0.485401
26.8775 0.879468
27.1635 -0.0367015
27.4496 0.349221
27.7356 -0.0981821
28.0217 0.131507
28.3077 0.361204
28.5938 2.28362
28.8799 0.0133313
29.1659 0.19097
29.452 0.550909
29.738 0.572314
30.0241 0.489561
30.3101 0.224524
30.5962 -0.0665454
30.8823 0.802127
31.1683 0.207618
31.4544 0.42041
31.7404 -0.773041
32.0265 0.00473325
32.3125 0.36274
32.5986 1.13742
32.8847 0.479821
33.1707 0.543278
33.4568 1.12623
33.7428 0.693569
34.0289 0.208832
34.3149 -0.342326
34.601 0.726538
34.8871 0.124788
35.1731 1.70107
35.4592 0.256528
35.7452 1.02553
36.0313 0.935175
36.3173 -0.0926763
36.6034 0.911502
36.8895 0.0521955
37.1755 0.494981
37.4616 -0.338267
37.7476 0.83452
38.0337 3.90836
38.3197 35.3155
38.6058 5.36855
38.8919 0.395542
39.1779 0.0932218
39.464 -0.0153977
39.75 1.46453
40.0361 3.98614
40.3221 9.58067
40.6082 0.669999
40.8942 -0.167746
41.1803 0.322643
41.4664 -0.0723768
41.7524 0.79566
42.0385 0.322586
42.3245 -0.176521
42.6106 -0.83187
42.8966 0.544039
43.1827 0.435581
43.4688 0.249007
43.7548 0.167914
44.0409 -0.37443
44.3269 0.437401
44.613 0.0199622
44.899 0.255163
45.1851 0.568526
45.4712 -0.428827
45.7572 -0.254297
46.0433 0.0764914
46.3293 -0.00937846
46.6154 0.184526
46.9014 1.27536
47.1875 0.751617
47.4736 0.514342
47.7596 -0.113549
48.0457 0.00756144
48.3317 0.0335891
48.6178 0.0777855
48.9038 -0.243907
49.1899 0.137535
49.476 0.145251
49.762 -0.215127
50.0481 -0.0546628
50.3341 0.150089
50.6202 0.143945
50.9062 0.578306
51.1923 -0.126723
51.4784 0.105757
51.7644 -0.0405141
52.0505 0.30108
52.3365 -0.346901
52.6226 0.906168
52.9086 9.68529
53.1947 8.98525
53.4808 0.00396714
53.7668 0.10294
54.0529 0.146152
54.3389 0.658123
54.625 0.336769
54.911 -0.0106191
55.1971 -0.173986
55.4832 0.458895
55.7692 -0.16672
56.0553 -0.0583793
56.3413 0.0499698
56.6274 0.0381434
56.9134 0.282825
57.1995 -0.0782397
57.4856 0.159662
57.7716 0.136524
58.0577 0.177453
58.3437 0.258369
58.6298 0.173701
58.9158 -0.287146
59.2019 0.397848
59.4879 0.249517
59.774 -0.188582
60.0601 0.6599
60.3461 -0.0801503
60.6322 -0.0129012
60.9182 0.0543563
61.2043 0.0574317
61.4903 0.000428959
61.7764 -0.0631228
62.0625 0.0886433
62.3485 0.331099
62.6346 0.0787713
62.9206 3.91499
63.2067 1.31893
63.4927 -0.0632576
63.7788 0.103572
64.0649 -0.0212884
64.3509 -0.148935
64.637 -0.00438926
64.923 -0.0496527
65.2091 -0.0167828
65.4951 0.172345
65.7812 0.519986
66.0673 0.218642
66.3533 0.0214727
66.6394 -0.134741
66.9254 0.206358
67.2115 0.365174
67.4975 0.23754
67.7836 0.180127
68.0697 0.0508598
68.3557 0.248636
68.6418 -0.120164
68.9278 -0.124372
69.2139 -0.224525
69.4999 0.079042
69.786 0.825326
70.0721 1.10287
70.3581 6.38042
70.6442 95.1476
70.9302 8.472
71.2163 0.259994
71.5023 0.120911
71.7884 0.319385
72.0745 0.217645
72.3605 0.0638298
72.6466 0.187444
72.9326 0.00536905
73.2187 0.42226
73.5047 -0.30912
73.7908 0.481282
74.0769 0.203985
74.3629 0.213154
74.649 -0.069563
74.935 -0.0102392
75.2211 0.345894
75.5071 -0.083226
75.7932 0.2428
76.0793 1.32404
76.3653 2.56154
76.6514 -0.0551156
76.9374 0.114427
77.2235 0.22475
77.5095 0.406327
77.7956 0.145203
78.0816 0.168616
78.3677 0.139254
78.6538 0.0248505
78.9398 -0.0374609
79.2259 0.160653
79.5119 0.205979
79.798 -0.0665027
80.084 -0.104601
80.3701 -0.220816
80.6562 0.147777
80.9422 0.0191395
81.2283 -0.38198
81.5143 0.0762846
81.8004 0.0658071
82.0864 1.04492
82.3725 0.904252
82.6586 0.346924
82.9446 0.204406
83.2307 0.131852
83.5167 0.230904
83.8028 -0.00333354
84.0888 0.103867
84.3749 0.236392
84.661 0.134551
84.947 -0.0572133
85.2331 0.00114677
85.5191 0.117952
85.8052 0.518933
86.0912 0.0739139
86.3773 0.323242
86.6634 0.433585
86.9494 0.205395
87.2355 0.482717
87.5215 0.0278047
87.8076 0.450486
88.0936 0.448679
88.3797 0.212505
88.6658 0.255107
88.9518 0.16777
89.2379 0.249609
89.5239 0.331455
89.81 0.293838
89.9939 -0.170767