File: XRD/OER Sample 1 (Ti TiO2 Sb2S3)_25112020_bg_subtracted.xy
'Id: "Commander Sample ID" Comment: "" Operator: "Lab Manager" Anode: "Cu" Scantype: "Coupled TwoTheta/Theta" TimePerStep: "38.4"
10.0001 -0.610176
10.2862 -0.927255
10.5722 0.706396
10.8583 0.258832
11.1443 2.59985
11.4304 1.84402
11.7164 3.69448
12.0025 4.86998
12.2886 6.04759
12.5746 8.42524
12.8607 11.1175
13.1467 11.9629
13.4328 15.3365
13.7188 16.1862
14.0049 18.1578
14.291 16.4075
14.577 18.2531
14.8631 18.0175
15.1491 16.3518
15.4352 14.9225
15.7212 21.7766
16.0073 12.6432
16.2934 10.0744
16.5794 9.92967
16.8655 7.54744
17.1515 8.73504
17.4376 8.28413
17.7236 7.8093
18.0097 3.63868
18.2958 4.20975
18.5818 2.77774
18.8679 3.0666
19.1539 1.8732
19.44 2.89546
19.726 1.86255
20.0121 0.857797
20.2981 2.5635
20.5842 0.677571
20.8703 0.668762
21.1563 -0.667405
21.4424 0.158654
21.7284 0.281251
22.0145 0.20186
22.3005 1.1923
22.5866 -0.549524
22.8727 -0.231933
23.1587 0.345815
23.4448 -0.138203
23.7308 0.641932
24.0169 -0.122268
24.3029 0.581539
24.589 -0.0910867
24.8751 2.67591
25.1611 2.00752
25.4472 -0.0129156
25.7332 0.281884
26.0193 -0.125839
26.3053 -0.271025
26.5914 -0.122774
26.8775 -0.424971
27.1635 0.266117
27.4496 1.63641
27.7356 0.665066
28.0217 0.39897
28.3077 0.161034
28.5938 3.05022
28.8799 1.07173
29.1659 0.912237
29.452 1.93523
29.738 -0.112571
30.0241 1.30529
30.3101 0.798181
30.5962 -0.800556
30.8823 0.649701
31.1683 0.0187441
31.4544 0.301365
31.7404 0.325688
32.0265 0.430255
32.3125 -0.218267
32.5986 1.06241
32.8847 0.778524
33.1707 0.126585
33.4568 0.336141
33.7428 0.0790652
34.0289 -0.332141
34.3149 0.0502041
34.601 -0.0261699
34.8871 -0.259633
35.1731 0.523842
35.4592 0.528186
35.7452 1.18569
36.0313 -0.159893
36.3173 0.540719
36.6034 0.742686
36.8895 0.556148
37.1755 0.545564
37.4616 0.5233
37.7476 -0.0654496
38.0337 1.38348
38.3197 9.13662
38.6058 4.49604
38.8919 0.664869
39.1779 -0.524207
39.464 0.0450211
39.75 0.303868
40.0361 2.20546
40.3221 9.49979
40.6082 0.676457
40.8942 0.266697
41.1803 0.188669
41.4664 0.467805
41.7524 0.514686
42.0385 0.302161
42.3245 0.955747
42.6106 0.673952
42.8966 0.472402
43.1827 0.663595
43.4688 -0.184759
43.7548 0.271089
44.0409 0.364473
44.3269 1.13739
44.613 -0.103079
44.899 0.195035
45.1851 -0.129733
45.4712 0.198661
45.7572 -0.14791
46.0433 0.818404
46.3293 0.642629
46.6154 0.0457944
46.9014 0.779204
47.1875 0.941816
47.4736 0.481547
47.7596 0.708855
48.0457 0.649989
48.3317 0.214587
48.6178 -0.0165581
48.9038 0.272505
49.1899 0.45952
49.476 0.186008
49.762 0.443098
50.0481 0.363765
50.3341 0.267711
50.6202 0.259989
50.9062 0.490916
51.1923 -0.150175
51.4784 0.460852
51.7644 -0.0566213
52.0505 0.437219
52.3365 0.757187
52.6226 0.714691
52.9086 5.28369
53.1947 10.1933
53.4808 -0.0771645
53.7668 0.0450663
54.0529 -0.0907208
54.3389 0.788498
54.625 0.367753
54.911 0.339751
55.1971 0.238798
55.4832 0.368951
55.7692 -0.0456516
56.0553 0.687698
56.3413 0.524685
56.6274 0.622735
56.9134 0.0979044
57.1995 0.564776
57.4856 0.791102
57.7716 -0.128531
58.0577 0.0477045
58.3437 -0.219816
58.6298 -0.213898
58.9158 0.731639
59.2019 0.394502
59.4879 0.0267678
59.774 0.19324
60.0601 0.387873
60.3461 0.0377499
60.6322 0.132455
60.9182 0.0269634
61.2043 -0.327141
61.4903 -0.132252
61.7764 0.25651
62.0625 -0.012861
62.3485 0.601131
62.6346 0.168955
62.9206 3.64515
63.2067 0.56096
63.4927 0.551809
63.7788 -0.0878081
64.0649 -0.11497
64.3509 -0.0396254
64.637 0.0408009
64.923 0.471321
65.2091 -0.357671
65.4951 -0.403294
65.7812 0.140532
66.0673 0.26981
66.3533 -0.00038272
66.6394 -0.0176345
66.9254 -0.136934
67.2115 -0.0457806
67.4975 -0.098285
67.7836 0.403489
68.0697 0.41259
68.3557 0.0661845
68.6418 -0.216366
68.9278 0.414662
69.2139 -0.0199001
69.4999 -0.071359
69.786 0.535214
70.0721 1.14391
70.3581 2.97868
70.6442 110.909
70.9302 8.6077
71.2163 0.657161
71.5023 0.130617
71.7884 0.0202609
72.0745 0.0154686
72.3605 0.266331
72.6466 -0.242974
72.9326 0.239425
73.2187 -0.159362
73.5047 0.295607
73.7908 -0.10668
74.0769 0.291215
74.3629 0.345967
74.649 -0.0919524
74.935 -0.00691969
75.2211 0.553297
75.5071 0.214961
75.7932 -0.303547
76.0793 1.34152
76.3653 2.31163
76.6514 0.341144
76.9374 -0.220971
77.2235 -0.029769
77.5095 0.189594
77.7956 -0.113131
78.0816 0.286016
78.3677 0.0362404
78.6538 0.439625
78.9398 -0.0663285
79.2259 0.19306
79.5119 0.276157
79.798 0.0145006
80.084 0.17163
80.3701 0.148588
80.6562 0.13118
80.9422 0.230392
81.2283 0.236448
81.5143 0.248843
81.8004 0.27616
82.0864 -0.137112
82.3725 0.285069
82.6586 0.240619
82.9446 -0.103815
83.2307 0.277759
83.5167 0.00112167
83.8028 -0.102565
84.0888 -0.359168
84.3749 0.0644693
84.661 0.553246
84.947 -0.299086
85.2331 -0.081591
85.5191 0.320315
85.8052 -0.21316
86.0912 0.175204
86.3773 -0.0332705
86.6634 0.303316
86.9494 0.263514
87.2355 -0.0345857
87.5215 -0.151517
87.8076 -0.088584
88.0936 0.380645
88.3797 -0.0334229
88.6658 0.84527
88.9518 -0.00766188
89.2379 0.085618
89.5239 -0.094377
89.81 0.159253
89.9939 -0.249783