File: XRD/OER Sample 2 (Ti TiO2 Sb2S3 MoO3)_25112020_bg_subtracted.xy
'Id: "Commander Sample ID" Comment: "" Operator: "Lab Manager" Anode: "Cu" Scantype: "Coupled TwoTheta/Theta" TimePerStep: "38.4"
10.0001 -0.594982
10.2862 0.270143
10.5722 -0.0702138
10.8583 0.59624
11.1443 1.13037
11.4304 1.89676
11.7164 3.15583
12.0025 4.72529
12.2886 5.51138
12.5746 8.8214
12.8607 10.9574
13.1467 13.1955
13.4328 13.3221
13.7188 13.5768
14.0049 15.9648
14.291 13.4027
14.577 15.3959
14.8631 15.2515
15.1491 15.157
15.4352 13.2897
15.7212 16.5244
16.0073 10.3559
16.2934 10.904
16.5794 8.76779
16.8655 8.00964
17.1515 7.17125
17.4376 7.60678
17.7236 7.70166
18.0097 5.71109
18.2958 3.19758
18.5818 3.91111
18.8679 2.66941
19.1539 2.90997
19.44 2.44529
19.726 1.82225
20.0121 2.29084
20.2981 1.22086
20.5842 1.63314
20.8703 0.89003
21.1563 0.217362
21.4424 0.0113304
21.7284 -0.248899
22.0145 0.660632
22.3005 0.864925
22.5866 0.520228
22.8727 0.0908152
23.1587 0.928331
23.4448 0.513734
23.7308 0.10875
24.0169 0.171234
24.3029 -0.17208
24.589 0.42973
24.8751 0.742967
25.1611 4.04888
25.4472 0.92039
25.7332 0.263743
26.0193 0.438316
26.3053 0.864544
26.5914 0.337029
26.8775 0.666776
27.1635 1.77253
27.4496 -0.158933
27.7356 -0.139382
28.0217 0.529096
28.3077 0.440252
28.5938 1.52117
28.8799 1.79268
29.1659 0.23916
29.452 0.532484
29.738 0.823694
30.0241 -0.319502
30.3101 0.644562
30.5962 -0.16432
30.8823 0.109516
31.1683 0.562844
31.4544 0.950935
31.7404 0.124564
32.0265 0.363786
32.3125 0.231593
32.5986 0.872244
32.8847 0.364947
33.1707 0.0899116
33.4568 0.333595
33.7428 -0.154002
34.0289 0.684411
34.3149 0.954189
34.601 1.50572
34.8871 -0.496943
35.1731 0.935778
35.4592 0.40443
35.7452 0.359137
36.0313 -0.157019
36.3173 0.00179284
36.6034 -0.127967
36.8895 0.291641
37.1755 0.133682
37.4616 0.41423
37.7476 1.14995
38.0337 1.83147
38.3197 14.1255
38.6058 7.17255
38.8919 -0.1731
39.1779 -0.151075
39.464 0.311
39.75 1.52805
40.0361 2.03461
40.3221 10.4036
40.6082 0.749732
40.8942 0.703078
41.1803 -0.0488142
41.4664 0.450903
41.7524 -0.313894
42.0385 -0.0391382
42.3245 -0.000871888
42.6106 0.139447
42.8966 -0.149486
43.1827 1.32438
43.4688 0.686763
43.7548 0.151195
44.0409 0.65518
44.3269 0.0372588
44.613 -0.0359014
44.899 0.755191
45.1851 0.398977
45.4712 -0.0194639
45.7572 0.265103
46.0433 0.599639
46.3293 -0.285276
46.6154 0.00501359
46.9014 1.38694
47.1875 0.553209
47.4736 1.09757
47.7596 -0.131011
48.0457 0.20046
48.3317 0.201095
48.6178 0.0694084
48.9038 0.664774
49.1899 0.284923
49.476 0.335393
49.762 0.0452069
50.0481 -0.325218
50.3341 -0.120328
50.6202 -0.051992
50.9062 0.369728
51.1923 -0.0146299
51.4784 -0.128934
51.7644 0.560245
52.0505 0.250358
52.3365 0.389083
52.6226 1.36967
52.9086 4.90023
53.1947 14.5485
53.4808 0.262293
53.7668 0.165317
54.0529 0.0428755
54.3389 1.24644
54.625 0.260399
54.911 0.00140638
55.1971 0.417383
55.4832 -0.0802134
55.7692 -0.210646
56.0553 0.290341
56.3413 0.450672
56.6274 0.0359714
56.9134 0.0618654
57.1995 -0.0346685
57.4856 -0.0506795
57.7716 0.0874454
58.0577 0.0151228
58.3437 0.385556
58.6298 0.709054
58.9158 0.180857
59.2019 0.431797
59.4879 -0.256878
59.774 0.276291
60.0601 0.364638
60.3461 -0.0960045
60.6322 0.505824
60.9182 0.159194
61.2043 -0.0970287
61.4903 0.328372
61.7764 -0.044824
62.0625 0.0453391
62.3485 0.419846
62.6346 0.427656
62.9206 2.38648
63.2067 2.88485
63.4927 0.0361341
63.7788 -0.127485
64.0649 0.383866
64.3509 0.16182
64.637 0.457036
64.923 0.203262
65.2091 0.155708
65.4951 0.425261
65.7812 0.472613
66.0673 -0.0177726
66.3533 0.0586103
66.6394 -0.0754544
66.9254 0.39017
67.2115 0.110026
67.4975 0.0621426
67.7836 0.141592
68.0697 -0.257133
68.3557 -0.260072
68.6418 -0.0903018
68.9278 0.305563
69.2139 0.312118
69.4999 -0.170876
69.786 -0.0374103
70.0721 0.729255
70.3581 3.73339
70.6442 73.2198
70.9302 15.8551
71.2163 -0.183559
71.5023 -0.13059
71.7884 0.0126512
72.0745 0.44175
72.3605 -0.227026
72.6466 -0.213638
72.9326 -0.136894
73.2187 -0.286076
73.5047 0.169956
73.7908 -0.00112496
74.0769 0.294429
74.3629 -0.17277
74.649 0.0587092
74.935 0.173072
75.2211 0.389486
75.5071 0.341661
75.7932 0.42022
76.0793 1.12167
76.3653 1.84704
76.6514 0.174462
76.9374 0.16644
77.2235 -0.213862
77.5095 0.0766179
77.7956 -0.312099
78.0816 -0.0327978
78.3677 0.0989366
78.6538 0.172316
78.9398 0.0348727
79.2259 0.0452831
79.5119 -0.311004
79.798 0.111845
80.084 -0.0403375
80.3701 0.274116
80.6562 0.109028
80.9422 0.159235
81.2283 0.136612
81.5143 0.278788
81.8004 0.407413
82.0864 0.143299
82.3725 1.28332
82.6586 0.0253955
82.9446 -0.010686
83.2307 -0.205132
83.5167 0.127855
83.8028 0.483047
84.0888 -0.0557876
84.3749 -0.172103
84.661 0.0480083
84.947 0.0248379
85.2331 0.241477
85.5191 -0.299207
85.8052 -0.00867138
86.0912 0.268658
86.3773 -0.187102
86.6634 -0.0704871
86.9494 0.406763
87.2355 -0.211563
87.5215 0.0396319
87.8076 -0.0758702
88.0936 0.562061
88.3797 0.340538
88.6658 0.0648183
88.9518 -0.0828077
89.2379 -0.10234
89.5239 0.188697
89.81 -0.120242
89.9939 -0.21788